File: Testing Code/Flexural Specimen/K-P-K 2 F.csv
0
55.36079
93.36472
124.7406
160.8849
195.1218
226.2592
254.3926
282.8121
309.0858
333.3092
356.1497
378.2272
397.8729
422.2393
440.7883
460.4816
477.4094
494.9093
513.0768
529.0508
547.6952
562.2387
575.1133
591.135
605.0587
620.5559
632.4768
646.4958
654.8882
666.9521
679.3499
689.5542
698.5664
707.4833
663.1375
673.7232
679.6837
688.2667
698.0896
702.858
704.0024
707.5787
713.5391
710.8212
714.3497
717.5922
715.8279
715.0173
715.4941
717.2584
719.881
723.3143
726.0322
729.7516
732.8987
734.1862
735.8551
737.3333
737.5717
735.3306
733.8524
733.1371
732.5649
732.0881
730.2284
727.5104
724.7448
691.4139
624.8951
573.3013
548.4581
534.153
513.9828
502.7294
482.6069
476.9802
402.8797
342.4167
326.6335
317.3828
316.0477
302.7439
284.2426
272.274
261.0684
257.1583
253.5343
253.3913
252.8191
254.488
256.3477
258.4457
260.7822
261.8313
262.8803
263.3572
264.0247
263.6909
264.1678
263.9294
264.1678
265.4553
266.5043
267.4103
267.8871
267.7917
267.0765
267.6487
269.3176
270.2236
271.2726
272.7985
273.8476
274.8013
275.6119
276.4225
277.4716
277.9484
278.9974
279.808
280.3802
280.7617
281.0955
281.4293
281.6677
281.8108
281.8108
282.0492
282.2399
282.2399
282.1445
282.0492
281.8108
281.0955
280.3802
279.9034
279.9034
280.1418
280.1418
279.5696
279.0928
278.4252
276.9947
274.3244
269.8898
265.2168
261.0207
257.9212
255.5847
250.3872
246.5248
243.8545
241.9949
240.5643
239.0385
237.751
236.1298
235.1761
232.9826
215.0059
215.292
214.6244
213.9568
213.5277
212.1925
209.9514
207.7579
205.183
201.9405
198.0782
192.2131
187.5401
185.585
184.1545
180.1968
176.096
174.2363
172.9488
170.8508
167.942
164.7949
159.8835
155.2582
152.5402
149.8222
144.9108
138.8073
136.7569
135.8032
133.9436
130.7011
130.0812
130.2242
130.4626
129.652
106.5731
104.2843
101.5663
94.55681
91.26663
90.55138
91.9342
91.45737
91.31432
90.21759
88.7394
88.16719
87.59499
87.49962
86.92741
86.06911
84.20944
82.68356
81.63452
80.34706
78.58276
77.91519
76.05553
74.86343
73.90976
72.43156
71.57326
71.57326
71.47789
71.57326
71.00105
70.90569
70.66727
70.42885
70.33348
70.52422
70.19043
70.19043
69.95201
69.85664
69.61823
69.37981
69.37981
69.52286
69.85664
70.52422
70.66727
71.00105
71.1441
71.47789
71.81168
71.95473
72.05009
72.28851
72.28851
71.95473
72.28851
71.95473
72.05009
71.81168
71.81168
71.57326
71.23947
71.38252
71.1441
71.23947
70.95337
70.66727
70.52422
70.33348
69.99969
69.61823
69.71359
69.71359
69.23676
69.47517
69.14139
68.56918
67.99698
67.99698
68.18771
67.75856
67.61551
67.0433
66.80489
67.0433
67.37709
67.75856
68.18771
67.99698
68.09235
68.42613
68.56918
68.8076
69.04602
68.90297
69.04602
68.95065
69.18907
69.14139
69.47517
69.61823
69.85664
69.85664