File: Testing Code/Flexural Specimen/P-K-P 3 S.csv
0
0.06375
0.1370521
0.2104062
0.2837292
0.3570729
0.430375
0.5037604
0.5770521
0.6504062
0.7237291
0.7970521
0.8703854
0.9437292
1.017031
1.090385
1.163708
1.237021
1.310375
1.383698
1.457031
1.530375
1.603729
1.677031
1.750406
1.823708
1.897073
1.970396
2.04374
2.117042
2.190427
2.263719
2.337073
2.410396
2.483729
2.557042
2.630396
2.703698
2.777042
2.850375
2.923687
2.997031
3.070364
3.143687
3.217031
3.290375
3.363677
3.437052
3.510365
3.583719
3.657052
3.730385
3.803698
3.877073
3.950365
4.023729
4.097063
4.170385
4.243698
4.317073
4.390365
4.463708
4.537052
4.610354
4.683698
4.757031
4.830354
4.903687
4.977031
5.050333
5.123698
5.197021
5.270375
5.343708
5.417052
5.490354
5.563729
5.637031
5.710385
5.783708
5.857052
5.930365
6.003729
6.077021
6.150385
6.223719
6.297031
6.370354
6.443708
6.51701
6.590354
6.663698
6.737
6.810354
6.883687
6.95701
7.030354
7.103698
7.177011
7.250385
7.323698
7.397042
7.470375
7.543719
7.617021
7.690396
7.763688
7.837052
7.910375
7.983708
8.057021
8.130375
8.203677
8.27702
8.350354
8.423667
8.49701
8.570344
8.643666
8.71701
8.790343
8.863667
8.937031
9.010344
9.083698
9.157031
9.230365
9.303677
9.377052
9.450354
9.523708
9.597032
9.670375
9.743688
9.817052
9.890344
9.963697
10.03702
10.11033
10.18368
10.25701
10.33032
10.40367
10.47701
10.55031
10.62368
10.697
10.77034
10.84368
10.91703
10.99033
11.06371
11.13701
11.21036
11.28369
11.35703
11.43034
11.50371
11.57701
11.65036
11.72369
11.79701
11.87034
11.94369
12.01699
12.09033
12.16367
12.23697
12.31033
12.38366
12.45699
12.53034
12.60369
12.67699
12.75035
12.82367
12.89702
12.97034
13.04369
13.117
13.19038
13.26367
13.33703
13.41034
13.48368
13.557
13.63035
13.70366
13.777
13.85033
13.92365
13.99699
14.07032
14.14365
14.21699
14.29032
14.36364
14.43701
14.51032
14.58368
14.657
14.73034
14.80366
14.87703
14.95032
15.02369
15.09701
15.17034
15.24366
15.31702
15.39032
15.46367
15.537
15.61031
15.68365
15.75699
15.8303
15.90365
15.97699
16.05029
16.12365
16.19698
16.27032
16.34366
16.417
16.49031
16.56369
16.63699
16.71034
16.78367
16.85701
16.93032
17.0037
17.07698
17.15034
17.22367
17.29699
17.37031
17.44366
17.51697
17.59031
17.66364
17.73695
17.81031
17.88363
17.95697
18.0303
18.10365
18.17696
18.25033
18.32365
18.397
18.47032
18.54368
18.61697
18.69035
18.76365
18.837
18.91033
18.98366
19.05698
19.13033
19.20363
19.27698
19.35031
19.42362
19.49697
19.5703
19.64363
19.71697
19.7903
19.86362
19.93699
20.0103
20.08364
20.15698
20.23033
20.30363
20.37701
20.4503
20.52366
20.59699
20.67032
20.74364
20.81701
20.8903
20.96366
21.03698
21.11029
21.18362
21.25697
21.33028
21.40363
21.47697
21.55027
21.62362
21.69696
21.7703
21.84364
21.91698
21.94662