File: Testing Code/Flexural Specimen/P-K-P 3 F.csv
0
0.2384186
0.3814697
1.621246
4.243851
7.43866
11.01494
15.06805
34.04617
37.57477
45.91942
51.59378
54.93164
60.17685
65.32669
72.24083
75.10185
79.58412
84.30481
89.93149
92.50641
97.13173
100.8511
107.336
109.8156
111.8183
116.9682
120.4491
121.6412
124.7883
127.2678
128.3646
133.9436
134.0866
137.5675
140.8577
139.0934
143.4803
145.8168
147.6765
149.4408
149.8222
151.3004
152.6833
150.4898
153.78
153.9707
156.1642
154.0184
154.5906
155.3059
156.1165
156.5933
157.0225
157.4993
157.9762
158.3099
158.5484
158.9298
159.1682
159.5974
159.9789
160.3127
160.6464
160.8849
160.8849
160.7895
160.4557
159.8358
159.502
159.2636
159.0252
158.7868
158.9298
158.9298
158.7868
158.5484
158.3099
158.2146
157.9762
157.2132
156.5933
156.1642
155.6396
154.9244
154.0184
152.874
151.7773
150.7282
149.4884
148.5348
147.8195
147.4857
147.2473
147.1043
146.6751
146.2936
145.9599
145.7214
145.3876
145.1492
144.9108
144.7678
144.6724
144.6724
144.5293
144.434
144.434
144.3386
144.1956
144.1956
144.434
144.5293
144.6724
145.0062
145.3876
145.7214
145.9599
146.0552
146.0552
146.1983
146.5321
146.8658
147.2473
147.3427
147.5811
148.0579
148.6301
149.2023
149.5838
149.8222
150.0607
150.3944
150.9666
151.4435
151.9203
152.4925
152.9694
153.6369
154.4952
155.1628
155.8781
156.6887
157.1655
157.7377
158.5484
159.2636
159.8358
160.3603
160.8849
161.5047
162.1723
162.6492
163.2214
164.175
164.7472
165.2241
165.7009
166.2731
166.8453
167.5606
168.0374
168.3712
168.6096
168.848
169.3249
169.8971
170.3739
170.9461
171.6614
172.0905
172.5674
173.378
174.3317
175.1423
175.6191
176.096
176.7635
177.3834
177.9556
178.7186
179.4815
180.2921
181.1981
182.0564
182.8671
183.5346
184.2499
184.9651
185.6327
186.5387
187.397
188.2076
189.0659
189.8289
190.5441
191.2594
192.2131
193.5005
194.5496
195.4556
196.4092
197.5536
198.6027
199.5564
200.51
201.416
202.3697
203.4187
204.3247
205.2784
206.3274
207.3765
208.2348
209.3792
210.762
211.9541
213.0032
213.9091
214.8628
215.7688
216.8179
218.2484
219.5358
220.8233
222.1107
223.2552
224.4473
225.5917
226.8791
228.0235
229.1203
230.0262
231.2183
232.3627
233.5548
234.4608
235.6052
237.0358
238.657
240.0875
241.2796
242.5194
244.0453
245.4281
246.8586
248.1461
249.1951
250.2441
251.3885
252.5806
253.4866
254.2973
255.1556
256.0616
256.7768
257.349
257.9212
258.6365
259.4471
260.2577
261.116
262.0697
263.2141
264.1201
264.9307
265.7413
266.5997
267.5056
268.3163
269.0315
269.7468
270.5574
271.368
272.3217
272.9893
273.6092
273.9429
274.4198
275.0873
275.9457
276.6132
277.4239
278.1391
278.7113
279.4266
279.9034
280.4756
281.1909
282.0015
282.9075
283.7658
284.5764
285.0533
285.7208
286.4361
287.2467
288.0573
288.7726
289.4879
289.8216