File: Testing Code/Flexural Specimen/PK 2 S.csv
0
0.03209375
0.07375
0.1154375
0.1570833
0.19875
0.2404375
0.2820833
0.32375
0.3654271
0.4070833
0.44875
0.4904271
0.5320833
0.57375
0.6154271
0.6570833
0.69875
0.7404271
0.7820833
0.82375
0.8654271
0.9070833
0.94875
0.9904271
1.032083
1.07375
1.115438
1.157083
1.19875
1.240427
1.282083
1.32375
1.365427
1.407083
1.44875
1.490427
1.532083
1.57375
1.615427
1.657083
1.69875
1.740427
1.782083
1.82375
1.865427
1.907073
1.94874
1.990427
2.032073
2.07374
2.115427
2.157073
2.19874
2.240427
2.282073
2.32374
2.365417
2.407073
2.44874
2.490417
2.532073
2.57374
2.615427
2.657073
2.69874
2.740417
2.782073
2.82374
2.865427
2.907073
2.94874
2.990417
3.032073
3.07374
3.115417
3.157073
3.19874
3.240427
3.282073
3.32374
3.365417
3.407073
3.44874
3.490417
3.532073
3.57374
3.615417
3.657073
3.69874
3.740417
3.782073
3.82374
3.865417
3.907073
3.94874
3.990417
4.032073
4.07374
4.115417
4.157073
4.19874
4.240417
4.282063
4.323729
4.365417
4.407063
4.448729
4.490417
4.532073
4.573729
4.615417
4.657063
4.698729
4.740406
4.782063
4.823729
4.865417
4.907063
4.948729
4.990406
5.032063
5.073729
5.115417
5.157063
5.198729
5.240417
5.282063
5.323729
5.365406
5.407063
5.448729
5.490417
5.532063
5.573729
5.615406
5.657063
5.698729
5.740406
5.782063
5.823729
5.865406
5.907063
5.948729
5.990406
6.032063
6.073729
6.115406
6.157063
6.198729
6.240406
6.282063
6.323729
6.365406
6.407063
6.448729
6.490406
6.532063
6.573729
6.615406
6.657052
6.698719
6.740406
6.782063
6.823719
6.865406
6.907052
6.948719
6.990406
7.032063
7.073719
7.115406
7.157052
7.198729
7.240406
7.282052
7.323719
7.365406
7.407052
7.448719
7.490406
7.532052
7.573719
7.615406
7.657052
7.698719
7.740396
7.782052
7.823729
7.865396
7.907052
7.948719
7.990396
8.032052
8.073719
8.115396
8.157052
8.198719
8.240406
8.282052
8.323719
8.365396
8.407052
8.448719
8.490396
8.532052
8.573719
8.615396
8.657052
8.698719
8.740396
8.782052
8.823719
8.865396
8.907052
8.948719
8.990396
9.032042
9.073719
9.115396
9.157052
9.198719
9.240396
9.282042
9.323719
9.365396
9.407042
9.448719
9.490396
9.532052
9.573719
9.615396
9.657042
9.698709
9.740396
9.782042
9.823709
9.865396
9.907042
9.948709
9.990385
10.03204
10.07371
10.11539
10.15704
10.19871
10.2404
10.28204
10.32371
10.36539
10.40704
10.44871
10.49039
10.53204
10.57371
10.61539
10.65704
10.69871
10.74039
10.78204
10.82371
10.86539
10.90704
10.94871
10.99039
11.03204
11.07371
11.11539
11.15704
11.19871
11.24039
11.28204
11.32371
11.36539
11.40704
11.44871
11.49039
11.53204
11.57371
11.61539
11.65704
11.69871
11.74039
11.78203
11.82371
11.86539
11.90704
11.94871
11.99039
12.03203
12.07371
12.11539
12.15703
12.19845