File: Testing Code/Flexural Specimen/PK 2 F.csv
0
0.2384186
0.333786
0.5722046
20.45631
22.88818
27.99034
30.56526
35.28595
38.48076
40.43579
46.15784
48.82813
51.25999
56.40984
59.08012
62.70409
67.71088
70.47653
71.85936
79.01192
79.39339
85.35385
89.40697
91.55273
95.65353
98.18077
104.8088
106.9069
107.0023
111.3892
114.727
118.6848
120.4967
122.3087
125.8373
130.3673
132.6561
136.4231
135.8032
140.6193
144.1956
144.9108
146.4844
149.5361
154.2091
155.735
160.0266
161.8862
163.269
165.081
168.9434
172.4243
172.6151
174.9039
177.145
179.4338
178.6709
184.9174
184.0591
187.9215
189.0659
192.4515
193.9774
196.9814
198.4119
201.0822
202.6081
204.277
206.6612
209.5222
211.8587
211.9541
213.4323
213.0985
217.1516
219.7266
220.0127
222.0154
223.0167
227.499
229.6925
227.356
230.2647
229.9309
233.7456
236.2251
236.1298
239.9445
239.0385
241.375
241.518
241.1842
246.191
246.954
247.4308
249.052
252.0084
250.9594
251.5316
254.5834
256.5861
255.0125
257.2537
260.8776
259.4471
259.161
262.6419
264.2155
263.9771
265.1691
263.6909
266.0751
268.9362
267.0765
271.7495
271.7018
271.9402
269.8898
271.2726
271.7972
272.7509
274.8013
274.5151
276.4225
277.0424
276.3748
277.7576
277.1854
277.2808
280.3326
283.1936
281.0478
284.5764
284.9579
284.338
283.6227
285.4347
286.0069
282.9552
283.2889
283.6227
283.8611
284.0042
284.338
284.8148
285.2917
285.8639
286.4361
287.0083
287.5805
288.2004
288.6772
289.0587
289.5832
290.0601
290.5369
291.0137
291.2045
291.3475
291.4429
291.4429
291.5859
291.5859
291.5859
291.3475
291.0137
290.6323
290.1554
289.7263
289.011
288.248
287.6282
287.0083
286.6745
286.5791
286.5791
286.4361
286.3407
286.1977
285.9592
285.8639
285.8639
285.8639
285.9592
285.9592
285.9592
285.8639
285.7208
285.387
285.1486
284.9102
284.9102
284.9102
284.6718
284.338
283.8135
283.2889
282.7167
282.0015
262.9757
263.5479
263.2141
261.0207
258.6841
259.9716
259.6855
258.255
256.7291
257.7305
255.5847
255.7278
257.349
257.5397
255.5847
256.8722
256.6815
256.5384
256.3
255.8231
255.0602
254.0112
252.8191
251.5316
250.5779
249.9104
249.2905
248.8613
248.4798
248.1461
247.7646
247.4308
247.1924
246.8586
246.5248
246.1433
245.8096
245.3327
244.9036
244.7605
244.5221
244.379
244.2837
244.0453
243.5684
243.2346
242.9008
242.6624
242.5194
242.424
242.281
242.1856
241.9472
241.6134
241.375
241.1366
240.8981
240.6597
240.3259
239.9445
239.6107
239.2769
238.8
238.3232
238.0848
237.751
237.2742
236.9404
216.8655
210.5236
208.3778
206.089
199.0795
192.2607
173.8071
168.5143
157.547
154.9721
147.8195
142.8127
142.4789
139.4272
136.4231
135.7555
135.0403
136.1847
134.7542
131.5117
131.3686
132.7038
131.9885
130.5103
129.9858
131.2733