File: Testing Code/Tensile Specimen/K-P-K 1 FT.csv
0
48.63739
92.84019
132.1316
166.6069
197.9828
226.4977
250.7687
275.3735
297.2603
320.4822
334.692
350.8091
369.072
387.2871
403.7857
415.1344
427.0077
435.0662
444.8414
450.325
459.0988
465.3454
472.6887
482.7499
492.1913
497.5796
508.1177
515.3656
519.3234
527.668
533.4377
540.4473
547.7905
552.1298
557.1842
563.097
567.4362
571.1555
577.4975
583.1241
587.8448
592.5656
600.2903
603.1513
610.0178
612.7357
617.5042
624.4183
624.9905
631.3801
637.0544
637.7697
643.0626
648.2601
653.1715
657.9876
660.3718
666.3323
669.8608
671.4821
675.1061
677.3949
684.3567
686.0733
693.2736
696.6114
697.5651
701.5705
705.8621
707.2449
710.1536
715.1127
718.2598
718.6413
720.9301
725.4124
726.1276
730.1807
735.8551
736.0935
740.8142
743.7706
747.1085
750.7801
753.6411
753.6411
761.795
761.6997
764.3223
768.3754
772.3331
773.6683
776.2909
779.6288
781.6791
787.0197
789.4993
792.3126
794.9352
796.7472
803.4706
802.9461
808.9542
809.7649
812.912
816.5359
818.1095
820.2552
823.8315
828.6953
831.7947
833.7498
837.7552
837.183
841.6176
844.7647
847.435
849.8669
851.2497
855.6843
858.3069
860.3573
863.3613
864.3151
866.127
870.3232
874.9008
874.1379
876.7605
879.6215
881.0997
883.2932
886.488
889.0629
891.4948
892.9253
894.165
898.4565
898.3135
901.556
904.7509
904.0833
909.9006
911.2835
916.3856
915.6704
919.0082
923.1091
925.684
928.0205
930.7385
933.3134
937.2234
938.3202
941.6104
943.327
945.6635
948.4291
949.192
954.8664
955.677
956.8691
958.7288
965.929
966.7874
971.2696
974.7505
975.7996
980.5679
979.9957
986.3854
981.9984
984.5734
987.2437
989.7709
992.6319
995.5406
998.2586
1001.167
1003.742
1006.412
1009.464
1012.182
1014.614
1016.712
1019.049
1021.719
1024.771
1027.25
1029.778
1032.162
1034.498
1037.168
1039.743
1042.795
1045.418
1047.707
1049.805
1051.426
1053.715
1056.099
1058.817
1061.487
1063.49
1065.016
1066.446
1067.591
1069.117
1070.833
1073.17
1075.315
1077.032
1079.035
1080.561
1082.659
1084.995
1087.046
1089.334
1091.528
1093.96
1096.439
1098.537
1100.779
1103.449
1105.785
1106.501
1104.879
1105.213
1106.644
1107.788
1108.026
1108.742
1110.506
1108.837
1107.073
1107.55
1108.026
1108.837
1110.029
1110.601
1109.219
1088.715
1083.612
1082.087
1051.044
954.8664
892.973
873.0411
856.781
832.1762
762.6533
755.9777
753.4504
744.915
741.4341
722.1222
687.9807
647.7833
608.6826
568.4376
545.2633
528.9078
506.3057
475.4066
470.5906
465.3931
451.3741
438.7856
418.9491
411.0336
404.2148
395.6318
387.001
381.9466
377.512
369.6918
357.7232
353.4794
349.5216
344.7056
336.1702
333.5476
311.47
289.6309
279.5219
270.9389
263.7386
256.5384
248.9567
239.8491
233.2211
226.8791
218.2961
201.0822
183.0101
171.423
154.0184
146.0075
81.34842
61.89346