File: Testing Code/Tensile Specimen/K-P-K 1 ST.csv
0
0.0605625
0.1238958
0.1872187
0.2505417
0.313875
0.3772188
0.4405521
0.5038958
0.5672292
0.6305729
0.6938958
0.7572083
0.8205312
0.8838646
0.9471979
1.010531
1.073875
1.137208
1.200552
1.263906
1.32726
1.390594
1.453927
1.51725
1.580562
1.643896
1.707219
1.770552
1.833875
1.897219
1.960552
2.023885
2.087229
2.150563
2.213906
2.277229
2.340542
2.403875
2.467198
2.530521
2.593854
2.657187
2.720531
2.783864
2.847208
2.910563
2.973906
3.03724
3.100563
3.163885
3.227208
3.290542
3.353875
3.417208
3.480542
3.543885
3.607219
3.670573
3.733906
3.79724
3.860563
3.923875
3.987208
4.050521
4.113854
4.177187
4.240521
4.303864
4.367208
4.430552
4.493906
4.55724
4.620573
4.683896
4.747219
4.810542
4.873865
4.937198
5.000531
5.063865
5.127198
5.190531
5.253875
5.317219
5.380552
5.443885
5.507187
5.570521
5.633844
5.697177
5.76051
5.823843
5.887198
5.950531
6.013885
6.07724
6.140573
6.203917
6.26724
6.330552
6.393885
6.457198
6.520531
6.583854
6.647198
6.710531
6.773875
6.837208
6.900552
6.963885
7.027208
7.090521
7.153844
7.217177
7.2805
7.343833
7.407166
7.47051
7.533844
7.597198
7.660542
7.723886
7.787219
7.850542
7.913865
7.977198
8.040521
8.103854
8.167188
8.230521
8.293864
8.357198
8.420542
8.483886
8.547229
8.610552
8.673864
8.737187
8.80051
8.863844
8.927167
8.990499
9.053843
9.117188
9.180532
9.243875
9.307208
9.370552
9.433875
9.497198
9.560521
9.623843
9.687177
9.75051
9.813844
9.877177
9.94052
10.00385
10.0672
10.13053
10.19385
10.25718
10.3205
10.38382
10.44716
10.51049
10.57382
10.63717
10.70052
10.76386
10.82721
10.89055
10.9539
11.01722
11.08054
11.14386
11.20719
11.27051
11.33384
11.39719
11.46051
11.52384
11.5872
11.65053
11.71386
11.77719
11.8405
11.90382
11.96716
12.03049
12.09382
12.15715
12.2205
12.28383
12.34718
12.41052
12.47385
12.5372
12.60053
12.66385
12.72718
12.7905
12.85383
12.91717
12.9805
13.04383
13.10718
13.17052
13.23386
13.2972
13.36053
13.42384
13.48717
13.55049
13.61382
13.67716
13.74049
13.80382
13.86717
13.93051
13.99386
14.05721
14.12054
14.18385
14.24718
14.3105
14.37382
14.43717
14.50049
14.56381
14.62716
14.69049
14.75383
14.81717
14.88051
14.94384
15.00716
15.07048
15.13381
15.19713
15.26047
15.3238
15.38716
15.45049
15.51384
15.5772
15.64053
15.70387
15.7672
15.83051
15.89384
15.95717
16.0205
16.08382
16.14716
16.2105
16.27383
16.33718
16.40051
16.46385
16.52717
16.59049
16.65381
16.71713
16.78046
16.84379
16.90713
16.97047
17.03381
17.09717
17.16051
17.22384
17.28718
17.35051
17.41383
17.47716
17.54048
17.60381
17.66714
17.73048
17.79382
17.85716
17.9205
17.98384
18.04718
18.11051
18.17382
18.23715
18.30047
18.3638
18.42714
18.49047
18.55381
18.61715
18.6805
18.74384
18.80718
18.87052
18.93384
18.96756