File: Testing Code/Tensile Specimen/P-K 3 ST.csv
0.000302083
0.01638542
0.03386458
0.05140625
0.06888542
0.08639583
0.1039271
0.1213646
0.138875
0.1563958
0.1738854
0.191375
0.2089167
0.2263854
0.2438646
0.2614062
0.2788854
0.2963854
0.3139063
0.3313958
0.3488646
0.3663854
0.3838958
0.401375
0.4189167
0.4363958
0.4538646
0.471375
0.4888958
0.5063854
0.5238854
0.5414166
0.5588646
0.576375
0.5938959
0.6113854
0.628875
0.6464271
0.663875
0.6813542
0.6989062
0.716375
0.7338854
0.7514063
0.7688854
0.7863542
0.8038854
0.8213958
0.838875
0.8564062
0.8738958
0.8913646
0.9088646
0.9263958
0.943875
0.9613958
0.9789166
0.9963646
1.013875
1.031396
1.048875
1.066375
1.083917
1.101375
1.118854
1.136406
1.153875
1.171385
1.188906
1.206385
1.223854
1.241385
1.258896
1.276375
1.293906
1.311396
1.328865
1.346365
1.363896
1.381375
1.398885
1.416417
1.433854
1.451375
1.468896
1.486375
1.503875
1.521417
1.538875
1.556354
1.573906
1.591375
1.608885
1.626406
1.643885
1.661354
1.678885
1.696396
1.713875
1.731406
1.748896
1.766365
1.783865
1.801396
1.818875
1.836385
1.853917
1.871354
1.888875
1.906396
1.923875
1.941375
1.958906
1.976375
1.993854
2.011406
2.028875
2.046385
2.063906
2.081385
2.098854
2.116375
2.133896
2.151365
2.168906
2.186396
2.203865
2.221364
2.238896
2.256375
2.273885
2.291417
2.308854
2.326375
2.343885
2.361375
2.378875
2.396417
2.413875
2.431354
2.448896
2.466375
2.483885
2.501406
2.518885
2.536354
2.553885
2.571396
2.588865
2.606406
2.623896
2.641354
2.658854
2.676396
2.693865
2.711375
2.728917
2.746354
2.763865
2.781385
2.798875
2.816365
2.833906
2.851375
2.868854
2.886396
2.903875
2.921375
2.938896
2.956385
2.973844
2.991385
3.008885
3.026354
3.043896
3.061396
3.078854
3.096354
3.113896
3.131375
3.148885
3.166406
3.183844
3.201365
3.218885
3.236365
3.253875
3.271417
3.288875
3.306344
3.323906
3.341365
3.358875
3.376385
3.393885
3.411344
3.428875
3.446396
3.463865
3.481396
3.498885
3.516354
3.533854
3.551385
3.568865
3.586375
3.603906
3.621354
3.638865
3.656385
3.673865
3.691365
3.708906
3.726365
3.743844
3.761396
3.778865
3.796375
3.813896
3.831375
3.848844
3.866375
3.883885
3.901365
3.918896
3.936385
3.953854
3.971354
3.988896
4.006364
4.023875
4.041406
4.058844
4.076354
4.093885
4.111364
4.128865
4.146406
4.163865
4.181344
4.198896
4.216364
4.233875
4.251396
4.268875
4.286344
4.303875
4.321385
4.338864
4.356396
4.373875
4.391354
4.408854
4.426385
4.443864
4.461375
4.478906
4.496344
4.513865
4.531385
4.548875
4.566365
4.583906
4.601365
4.618844
4.636396
4.653864
4.671375
4.688896
4.706375
4.723844
4.741364
4.758885
4.776354
4.793896
4.811385
4.828854
4.846354
4.863885
4.881364
4.898875
4.916406
4.933844
4.951354
4.968885
4.986364
5.003865
5.021396
5.038865
5.056344
5.073885
5.091364
5.108864
5.126385
5.143875
5.161344
5.178864
5.190927