File: Testing Code/Tensile Specimen/P-K 3 FT.csv
-1.049042
-0.9059906
38.67149
57.6973
75.72174
95.22438
110.5309
124.1684
140.2378
156.641
171.2799
182.0564
195.2648
206.6135
221.1571
232.029
244.9512
257.2537
266.695
278.2822
291.8243
302.6962
312.8052
322.1512
332.88
339.4604
352.5257
361.3472
373.3635
383.8062
389.9574
398.3975
406.4083
417.9001
423.7175
432.2529
442.8387
446.7964
456.5239
460.1956
469.5892
477.9816
484.705
492.8589
499.8207
505.4474
512.4092
518.179
522.6612
531.4827
536.8232
546.2646
548.9826
556.2782
563.6215
568.1515
573.5397
577.7359
587.368
590.8013
595.9034
600.6241
608.778
615.8829
619.4592
622.5586
630.3787
633.1444
641.4413
646.9727
649.3568
652.8378
658.3214
664.2819
668.0488
672.102
677.824
681.4957
687.3608
691.7953
694.2749
699.1387
702.9534
707.8647
709.2953
712.347
717.9737
722.6467
725.9846
728.2734
733.9001
734.9968
742.5308
744.6289
747.7283
751.8292
755.2147
759.9354
762.3672
762.8918
766.5634
769.1383
769.7582
774.1928
774.5743
776.9108
779.9625
782.8712
785.8753
789.547
791.5497
791.8835
796.3181
802.8507
800.2281
803.566
808.9066
809.6218
812.3875
817.9664
821.3043
823.3547
824.0699
830.0305
833.9882
835.4664
838.0413
838.4705
841.6176
844.717
846.6721
848.9609
852.4418
851.5358
855.4459
858.0685
856.7333
860.0235
863.6951
859.9758
866.3177
864.6488
866.1747
869.2264
867.6529
867.1284
865.9363
867.2238
869.6556
869.0834
871.6583
866.6039
867.0807
867.939
868.9404
870.0848
871.2292
872.3259
873.1365
874.0902
874.8531
875.5684
876.4267
876.9989
877.4757
877.5711
877.5711
877.3327
877.2373
877.142
877.285
877.7142
878.2864
879.097
880.0507
880.9567
881.958
882.9594
883.913
884.9621
885.868
886.8218
887.6801
888.5861
889.2536
890.1119
890.9225
891.5901
892.21
892.7822
893.4021
893.9266
894.5465
895.1187
895.4525
895.5956
895.3571
894.7849
894.0697
893.4974
893.259
893.259
893.4974
893.8312
894.165
894.5465
894.8803
895.2141
895.4048
895.5956
895.6909
895.6909
895.4525
895.0233
894.6418
894.165
893.9266
893.7359
893.7359
893.4974
893.259
892.8776
892.5438
892.5438
892.5438
892.7822
893.116
893.3544
874.4717
843.8587
837.0876
832.7484
825.4052
824.0223
819.6354
819.54
819.1586
813.0073
801.1341
796.5565
797.3194
801.897
800.2281
799.6082
801.4202
802.1355
801.9447
799.3698
792.0265
790.1191
782.9189
768.0416
751.6384
738.1439
731.0391
718.8797
708.1509
698.5187
687.5515
680.6373
674.3431
652.0271
638.3896
619.1254
603.1513
591.4211
579.4048
559.3777
531.8165
489.7118
421.2379
337.7914
231.5521
214.1953
189.7335
166.0347
148.8209
144.434
133.8005
126.1711
123.167
121.1166
119.5431
119.1139
117.9695
117.6834
117.3019
115.5853
114.7747
111.866
115.49
112.1998
107.9559
99.13445
88.07182
69.66591
62.32262
59.27086