File: Testing Code/Tensile Specimen/P-K-P 2 ST.csv
0
0.016375
0.03558333
0.05471875
0.07386458
0.09304167
0.1121979
0.1314062
0.1505833
0.1697187
0.1888854
0.2080417
0.2272292
0.2464271
0.2655833
0.2847396
0.303875
0.3230208
0.3422083
0.361375
0.3805729
0.3997396
0.418875
0.4380521
0.4572187
0.4764062
0.4955938
0.5147396
0.5338854
0.5530313
0.5721979
0.591375
0.6105625
0.6297396
0.6488958
0.6680416
0.6872187
0.7063854
0.7255729
0.7447604
0.7638854
0.7830417
0.8021979
0.8213646
0.8405625
0.8597396
0.8788958
0.8980521
0.9172083
0.9363854
0.9555625
0.97475
0.9939166
1.013042
1.032198
1.051354
1.070531
1.08974
1.108896
1.128062
1.147208
1.166375
1.185562
1.204729
1.223917
1.243073
1.262198
1.281365
1.300531
1.319719
1.338906
1.358052
1.377219
1.396375
1.415552
1.43474
1.453906
1.473073
1.492219
1.511354
1.530531
1.549698
1.568896
1.588073
1.607219
1.626375
1.645542
1.664719
1.683927
1.703073
1.722229
1.741365
1.760521
1.779698
1.798875
1.818073
1.837229
1.856375
1.875552
1.894708
1.913896
1.933094
1.952229
1.971375
1.990531
2.009687
2.028875
2.048063
2.067229
2.086385
2.105531
2.124719
2.143885
2.163073
2.18225
2.201375
2.220531
2.239687
2.258854
2.278052
2.297229
2.316396
2.335542
2.354708
2.373885
2.393052
2.41225
2.431417
2.450531
2.469698
2.488854
2.508031
2.52724
2.546385
2.565552
2.584708
2.603875
2.623062
2.642229
2.661406
2.680562
2.699687
2.718864
2.738021
2.757208
2.776406
2.795552
2.814708
2.833875
2.853042
2.872229
2.891406
2.910563
2.929708
2.948854
2.968031
2.987198
3.006385
3.025573
3.044708
3.063875
3.083042
3.102219
3.121406
3.140573
3.159719
3.178864
3.198021
3.217198
3.236365
3.255552
3.274729
3.293864
3.313031
3.332198
3.351385
3.370573
3.389729
3.408875
3.428031
3.447177
3.466365
3.485552
3.504729
3.523885
3.543021
3.562208
3.581375
3.600563
3.61975
3.638875
3.658031
3.677177
3.696344
3.715552
3.734719
3.753885
3.773031
3.792198
3.811375
3.830552
3.84974
3.868896
3.888021
3.907187
3.926344
3.945521
3.964729
3.983885
4.003042
4.022198
4.041365
4.060552
4.079729
4.098906
4.118052
4.137187
4.156354
4.17551
4.194708
4.213896
4.233042
4.252198
4.271365
4.290531
4.309719
4.328896
4.348063
4.367208
4.386343
4.405521
4.424687
4.443885
4.463062
4.482198
4.501375
4.520531
4.539708
4.558906
4.578052
4.597219
4.616364
4.63551
4.654687
4.673864
4.693052
4.712219
4.731365
4.750542
4.769698
4.788886
4.808083
4.827219
4.846364
4.865521
4.884677
4.903864
4.923042
4.942229
4.961375
4.980521
4.999708
5.018875
5.038063
5.05724
5.076375
5.095521
5.114677
5.133854
5.153042
5.172219
5.191385
5.210542
5.229687
5.248865
5.268042
5.28724
5.306396
5.325521
5.344677
5.363844
5.383021
5.402219
5.421385
5.440542
5.459698
5.478865
5.498042
5.517219
5.536396
5.555552
5.574677
5.593854
5.61301
5.632198
5.635094