File: Testing Code/Tensile Specimen/P-K-P 2 FT.csv
0
2.193451
129.8904
217.9623
301.075
378.8948
443.9831
500.5836
554.7047
606.6322
651.7887
698.5664
741.6725
784.3971
823.7362
863.4091
901.0315
939.8937
975.7519
1002.884
1037.168
1064.634
1093.102
1116.323
1138.115
1161.099
1178.789
1198.149
1216.364
1234.293
1251.125
1270.962
1288.176
1306.105
1323.366
1338.148
1354.98
1371.622
1388.168
1406.765
1417.589
1436.996
1453.924
1466.513
1483.393
1497.412
1511.192
1526.547
1543.617
1553.488
1570.749
1586.103
1599.789
1611.853
1628.017
1639.509
1655.674
1669.407
1682.138
1697.779
1706.886
1722.717
1735.449
1750.708
1760.387
1776.075
1786.28
1800.919
1811.981
1824.379
1836.586
1848.03
1864.91
1876.02
1884.413
1899.481
1911.783
1921.701
1936.054
1947.594
1961.088
1969.624
1981.306
1993.847
2006.054
2017.593
2029.467
2039.909
2049.16
2060.223
2074.242
2083.921
2095.89
2109.766
2117.252
2128.697
2138.71
2148.533
2161.36
2173.376
2182.341
2193.022
2204.18
2214.575
2224.159
2237.558
2246.571
2255.535
2265.12
2276.373
2287.245
2297.354
2307.749
2317.238
2326.87
2339.125
2346.563
2357.769
2367.449
2378.559
2387.285
2390.766
2402.544
2410.984
2423.191
2433.729
2437.687
2450.514
2460.146
2472.019
2483.129
2491.045
2501.249
2511.501
2521.086
2530.623
2538.156
2551.317
2558.184
2568.626
2574.682
2585.602
2595.52
2606.583
2614.307
2625.37
2633.715
2643.395
2652.264
2662.706
2668.762
2680.016
2688.742
2696.18
2705.288
2718.639
2726.221
2733.755
2743.387
2751.303
2743.197
2756.405
2767.944
2773.046
2781.391
2786.684
2795.315
2805.376
2810.812
2821.302
2825.832
2837.896
2844
2852.249
2864.361
2867.937
2878.952
2887.297
2890.539
2894.211
2902.555
2911.806
2914.238
2912.807
2919.626
2923.727
2927.875
2935.696
2942.848
2948.094
2957.773
2961.683
2973.175
2976.274
2984.428
2988.338
2994.823
3002.834
3010.893
3015.327
3020.144
3027.868
3036.165
3042.126
3045.654
3055.096
3062.391
3064.632
3072.453
3079.557
3088.76
3094.912
3099.68
3106.546
3115.082
3118.801
3125.477
3134.441
3138.542
3144.264
3148.842
3154.993
3160.715
3167.725
3173.59
3180.122
3185.225
3190.994
3197.241
3201.103
3209.353
3213.31
3220.224
3223.991
3226.614
3232.431
3235.817
3240.633
3240.824
3236.675
3242.636
3247.452
3246.927
3251.505
3248.978
3255.558
3253.651
3258.419
3264.475
3267.336
3265.572
3270.531
3274.536
3271.294
3277.969
3276.92
3276.682
3275.823
3280.401
3278.017
3277.063
3278.208
3277.922
3278.112
3277.874
3277.588
3277.159
3276.348
3275.299
3250.933
3238.773
3229.523
3216.505
3212.881
3192.806
3147.316
3065.3
2962.208
2804.518
2597.141
2159.739
1950.121
1257.276
1072.216
1000.071
935.4114
858.3069
797.2717
768.8046
749.8741
732.3742
625.8965
595.5219
578.6419
327.8732
-190.7349